wavelengths,emissivity
350,-0.42
351,1.69
352,-1.55
353,-2.25
354,3.88
355,-1.13
356,-0.02
357,-0.95
358,-5.44
359,1.93
360,13.94
361,-3.65
362,-1.98
363,-0.21
364,-1.28
365,1.71
366,-5.32
367,1.05
368,2.5
369,-2.47
370,1.26
371,0.9
372,-0.47
373,3.17
374,-1.11
375,4.61
376,-1.79
377,-1.42
378,1.99
379,2.24
380,1.12
381,-3.93
382,0.7
383,2.68
384,0.41
385,0.74
386,-1.86
387,3.11
388,1.28
389,2.09
390,0.64
391,6.59
392,5.48
393,0.66
394,5.57
395,3.21
396,4.7
397,4.71
398,2.56
399,0.68
400,8.89
401,-2.84
402,-1.87
403,-0.18
404,0.89
405,-1.45
406,2.81
407,1.65
408,2.5
409,3.3
410,3.31
411,-1.09
412,0.7
413,-3.09
414,-1.25
415,1.65
416,-0.38
417,5.72
418,0.85
419,-1.35
420,1.15
421,-0.35
422,1.33
423,2.29
424,0.34
425,2.67
426,0.42
427,4.58
428,2.25
429,2.02
430,1.61
431,2.63
432,3.87
433,0.35
434,3.46
435,0.96
436,-2.75
437,1.33
438,4.59
439,1.79
440,1.61
441,-0.73
442,4.38
443,0.53
444,-1.88
445,3.23
446,0.87
447,-0.21
448,1.63
449,3.34
450,5.52
451,4.01
452,1.99
453,2.71
454,-0.13
455,1.59
456,2.91
457,2.01
458,-1
459,0.34
460,2.58
461,1.2
462,2.78
463,-0.33
464,2.79
465,2.74
466,2.92
467,1.57
468,3.72
469,2.7
470,0.98
471,2.72
472,2.31
473,-1.64
474,-2.5
475,-0.59
476,-0.31
477,4.12
478,2.63
479,-0.76
480,-0.51
481,2.99
482,2.83
483,-1.52
484,2.1
485,0.82
486,4.32
487,1
488,0.01
489,-1.44
490,-0.65
491,1.14
492,3.15
493,5.55
494,2.71
495,3.79
496,3.22
497,2.58
498,0.04
499,0.77
500,-1.98
501,-1.12
502,6.28
503,-0.9
504,-1.5
505,-0.59
506,-0.86
507,-0.44
508,1.11
509,3.53
510,2.93
511,0.06
512,-2.22
513,0.56
514,-0.72
515,-1.29
516,2.2
517,-1.19
518,-0.79
519,2.44
520,-0.78
521,2.24
522,-3.26
523,-0.1
524,0.92
525,6.15
526,1.56
527,2.97
528,-2.05
529,0.93
530,4.19
531,-1.67
532,2.48
533,4.4
534,0.81
535,2.55
536,-2.85
537,1.23
538,2.15
539,-1.84
540,-2.32
541,-1.02
542,2.68
543,3.01
544,-1.43
545,-3.8
546,1.64
547,-2.83
548,3.63
549,1.54
550,3.3
551,-2.22
552,-1.49
553,2.41
554,-2.54
555,0.76
556,4.05
557,0.78
558,0.86
559,2.56
560,-4.51
561,1.03
562,0.82
563,4.51
564,-0.57
565,2.8
566,1.67
567,-1.95
568,0.74
569,2.43
570,-0.43
571,1.8
572,1.11
573,2.57
574,2.15
575,-0.19
576,6.53
577,-2.15
578,-0.41
579,2.79
580,1.78
581,-2.81
582,-0.3
583,-2.86
584,-2.2
585,-1.55
586,3.39
587,-0.3
588,-0.4
589,-0.97
590,-1.9
591,-0.71
592,1.13
593,2.24
594,-0.47
595,-2.95
596,1.43
597,0.84
598,4.91
599,0.19
600,-3.24
601,0.58
602,0.96
603,-4.4
604,1.32
605,4.13
606,-4.69
607,-2.45
608,-0.05
609,2.38
610,0.06
611,1.71
612,-1.52
613,-0.74
614,-1.51
615,-0.1
616,4.52
617,1.84
618,-2.55
619,1.04
620,-1.91
621,3.73
622,-1.42
623,2.22
624,-3.1
625,-2.21
626,1.99
627,-1.5
628,-0.75
629,-0.5
630,-0.41
631,-1.21
632,-0.48
633,-1.07
634,2.78
635,-0.64
636,-0.48
637,4
638,-4.43
639,-2.41
640,-4.43
641,-0.13
642,0.7
643,5.04
644,-1.24
645,-3.08
646,-2.02
647,0.12
648,0.65
649,-1.42
650,-3.17
651,3.29
652,-0.95
653,0.07
654,1.59
655,-7.11
656,0.49
657,-2.02
658,1.78
659,-3.89
660,2.57
661,0.66
662,2.08
663,-1.68
664,-1.91
665,-1.94
666,2.51
667,-2.12
668,3.24
669,1.62
670,-2.86
671,1.39
672,0.96
673,-4.4
674,-13.26
675,1.9
676,-0.14
677,-3
678,0.3
679,1.4
680,0.92
681,3.3
682,-3.96
683,0.21
684,1.43
685,3.44
686,0.51
687,5.45
688,2.62
689,1.56
690,2.58
691,-0.5
692,-0.57
693,0.42
694,-2.97
695,0.26
696,5.08
697,0.96
698,-2.48
699,2.2
700,-1.05
701,1.85
702,0.19
703,1.42
704,0.22
705,3.07
706,-3.72
707,0.57
708,-5.89
709,-0.48
710,1.5
711,0.68
712,-0.81
713,0.37
714,1
715,0.11
716,-1.28
717,-12.85
718,-2.66
719,1.6
720,3.76
721,-3.38
722,-1.46
723,1.55
724,-0.43
725,-6.43
726,2.58
727,-1.44
728,0.6
729,-2.46
730,1.54
731,-2.42
732,-0.46
733,-1.4
734,-2.41
735,0.59
736,-1.43
737,-3.43
738,-1.45
739,-3.26
740,2.77
741,2.01
742,4.35
743,0.51
744,1.69
745,1.81
746,-1.19
747,2.24
748,-2.04
749,-0.66
750,-3.42
751,-0.69
752,2.04
753,0.76
754,2.35
755,-1.37
756,1.6
757,-1.95
758,2.84
759,-0.26
760,1.78
761,0.36
762,2.51
763,-0.84
764,-1.97
765,2.14
766,4.84
767,1.95
768,-0.22
769,-1.1
770,-0.41
771,0.58
772,2.89
773,1.79
774,2.03
775,-3.12
776,0.03
777,2.97
778,0.16
779,-2.34
780,-1.9
781,0.76
782,1.28
783,2.09
784,-4.76
785,0.1
786,-3.57
787,-0.44
788,-1.16
789,-0.96
790,1.7
791,0.86
792,0.27
793,-2.11
794,2.78
795,-1.12
796,0.82
797,-2.98
798,-1.41
799,-1.53
800,-1.33
801,0.39
802,-2.79
803,-1.32
804,1.03
805,1.26
806,1.37
807,-3.17
808,0.56
809,-4.59
810,-0.45
811,-2.36
812,0.41
813,-0.51
814,1.96
815,4.97
816,0.36
817,-0.7
818,-0.61
819,1.58
820,-3.33
821,-0.34
822,1.15
823,-0.74
824,-3.21
825,0.37
826,0.88
827,0.73
828,1.43
829,0.61
830,-3.04
831,-1.63
832,1.72
833,-1.45
834,-0.27
835,-1.39
836,-3.37
837,1.91
838,1.24
839,-3.64
840,0.69
841,-1.92
842,0.58
843,1.28
844,3.33
845,0.35
846,-3.31
847,-0.93
848,-0.38
849,-1.52
850,-2.36
851,-0.5
852,-0.77
853,-1.2
854,-0.48
855,-3.25
856,-0.8
857,-0.36
858,-1.46
859,0.03
860,-1.59
861,-2.27
862,2.63
863,1.3
864,2.33
865,-2.72
866,-2.4
867,-0.12
868,-0.41
869,5.53
870,0.36
871,1.39
872,-3.72
873,-0.32
874,-1.02
875,-1.17
876,-2.77
877,0.93
878,-2.27
879,-0.67
880,-3.9
881,-3.55
882,1.3
883,1.07
884,0.79
885,-0.83
886,-1.51
887,-1.48
888,0.98
889,0.64
890,-4.07
891,-0.36
892,-0.16
893,-2.39
894,-2.14
895,1.51
896,-3.06
897,5.84
898,2.98
899,0.38
900,-2.58
901,1.69
902,-1.82
903,1.29
904,0.64
905,2.86
906,3.87
907,0.32
908,-1.39
909,-2.34
910,1.36
911,0.96
912,-3.53
913,-2.45
914,0.93
915,0.62
916,1.43
917,-1.76
918,1.32
919,0.68
920,-1.19
921,0.19
922,-0.99
923,-0.51
924,-1.99
925,-0.78
926,-0.69
927,-0.47
928,-0.97
929,-3.26
930,0.27
931,1.16
932,0.32
933,1.1
934,-4.4
935,0.09
936,-2.51
937,0.91
938,-0.15
939,1.46
940,-0.41
941,3.82
942,-0.11
943,-0.59
944,2.54
945,-1.73
946,-0.06
947,-0.61
948,-0.96
949,-4.75
950,-1.82
951,-3.79
952,2.11
953,-2.2
954,-1.64
955,-1.05
956,2.19
957,-2.3
958,-2.09
959,0.22
960,-1.23
961,2.48
962,-0.32
963,-0.4
964,4.26
965,1.88
966,-1.21
967,-2.13
968,-3.29
969,-3.66
970,-3.26
971,-1.45
972,-2.96
973,5.07
974,-2.2
975,-0.7
976,1.22
977,-1.47
978,3.13
979,-0.07
980,-0.13
981,-1.78
982,1.4
983,-0.12
984,-4.31
985,-2.24
986,-3.31
987,-2.02
988,-0.51
989,-2.2
990,2.49
991,1.53
992,0.11
993,1.58
994,0.02
995,-1.67
996,0.15
997,1.3
998,-1.48
999,3.35
1000,-2.49
